# P(k)  H0=0.71 Om0=0.267804 Ob0=0.0444356 Ol0=0.73 Sigma8=1 n_s=1
# k  P_E+H_wOsc(k)  P_E+H_noOsc(k)  P_this_simul(k) 
       0.001       11484.6       11384.5       11484.6
       0.002       21413.5       21271.3       21413.5
       0.003       29544.9         29442       29544.9
       0.004       36054.4       36047.6       36054.4
       0.005       41181.5       41301.6       41181.5
       0.006       45144.6       45400.9       45144.6
       0.007       48124.9       48507.4       48124.9
       0.008       50269.5       50748.4       50269.5
       0.009       51698.1       52224.5       51698.1
        0.01       52510.1       53021.8       52510.1
       0.011         52791         53222         52791
       0.012       52616.6       52911.3       52616.6
       0.013       52056.6       52182.3       52056.6
       0.014       51176.8       51131.9       51176.8
       0.015       50039.3       49853.7       50039.3
       0.016       48703.1       48431.9       48703.1
       0.017       47222.7       46935.8       47222.7
       0.018       45648.1         45418       45648.1
       0.019       44022.9       43915.6       44022.9
        0.02       42384.6       42452.3       42384.6
       0.021       40763.9       41041.9       40763.9
       0.022       39184.9       39691.1       39184.9
       0.023       37665.9         38402       37665.9
       0.024       36219.7       37173.9       36219.7
       0.025       34854.4       36004.2       34854.4
       0.026       33574.9       34889.8       33574.9
       0.027       32382.7       33827.2       32382.7
       0.028       31277.6       32812.9       31277.6
       0.029       30257.5       31843.6       30257.5
        0.03       29319.3       30916.2       29319.3
       0.031         28459         30028         28459
       0.032       27672.2       29176.3       27672.2
       0.033       26953.9       28358.9       26953.9
       0.034       26298.9       27573.8       26298.9
       0.035       25701.5         26819       25701.5
       0.036       25156.2       26092.8       25156.2
       0.037       24656.8       25393.8       24656.8
       0.038       24197.5       24720.5       24197.5
       0.039         23772       24071.5         23772
        0.04       23374.2       23445.8       23374.2
       0.041       22997.8       22842.3       22997.8
       0.042       22636.9       22259.8       22636.9
       0.043       22285.7       21697.4       22285.7
       0.044       21938.7       21154.3       21938.7
       0.045       21590.9       20629.5       21590.9
       0.046       21237.9       20122.4       21237.9
       0.047       20875.9       19632.1       20875.9
       0.048       20501.8         19158       20501.8
       0.049       20113.4       18699.3       20113.4
        0.05       19709.3       18255.5       19709.3
       0.051       19288.8         17826       19288.8
       0.052       18852.2       17410.1       18852.2
       0.053       18400.6       17007.4       18400.6
       0.054       17935.7       16617.4       17935.7
       0.055       17459.9       16239.4       17459.9
       0.056         16976       15873.2         16976
       0.057       16487.4       15518.1       16487.4
       0.058       15997.6       15173.9       15997.6
       0.059       15510.1         14840       15510.1
        0.06       15028.7       14516.2       15028.7
       0.061         14557       14201.9         14557
       0.062       14098.2         13897       14098.2
       0.063       13655.3         13601       13655.3
       0.064         13231       13313.6         13231
       0.065       12827.5       13034.5       12827.5
       0.066       12446.6       12763.4       12446.6
       0.067       12089.5         12500       12089.5
       0.068       11757.2       12244.1       11757.2
       0.069       11449.8       11995.4       11449.8
        0.07       11167.4       11753.6       11167.4
       0.071       10909.5       11518.4       10909.5
       0.072       10675.3       11289.8       10675.3
       0.073       10463.4       11067.3       10463.4
       0.074       10272.4       10850.9       10272.4
       0.075       10100.7       10640.4       10100.7
       0.076       9946.14       10435.4       9946.14
       0.077       9806.78       10235.9       9806.78
       0.078       9680.37       10041.6       9680.37
       0.079       9564.64       9852.45       9564.64
        0.08        9457.3       9668.19        9457.3
       0.081        9356.1       9488.69        9356.1
       0.082       9258.85       9313.78       9258.85
       0.083       9163.49       9143.33       9163.49
       0.084        9068.1       8977.19        9068.1
       0.085       8970.98       8815.22       8970.98
       0.086       8870.64        8657.3       8870.64
       0.087       8765.84       8503.29       8765.84
       0.088       8655.61       8353.07       8655.61
       0.089       8539.27       8206.53       8539.27
        0.09       8416.41       8063.55       8416.41
       0.091       8286.93       7924.02       8286.93
       0.092       8150.97       7787.84       8150.97
       0.093       8008.92        7654.9       8008.92
       0.094       7861.39       7525.11       7861.39
       0.095       7709.19       7398.38       7709.19
       0.096       7553.28       7274.61       7553.28
       0.097       7394.72       7153.71       7394.72
       0.098       7234.67       7035.61       7234.67
       0.099       7074.31       6920.21       7074.31
         0.1       6914.83       6807.45       6914.83
       0.101       6757.39       6697.24       6757.39
       0.102       6603.07       6589.51       6603.07
       0.103        6452.9       6484.19        6452.9
       0.104       6307.77       6381.21       6307.77
       0.105       6168.44       6280.51       6168.44
       0.106       6035.57       6182.02       6035.57
       0.107       5909.65       6085.69       5909.65
       0.108       5791.02       5991.44       5791.02
       0.109        5679.9       5899.23        5679.9
        0.11       5576.35       5808.99       5576.35
       0.111       5480.31       5720.68       5480.31
       0.112       5391.59       5634.24       5391.59
       0.113       5309.89       5549.62       5309.89
       0.114       5234.79       5466.77       5234.79
       0.115       5165.83       5385.65       5165.83
       0.116       5102.42       5306.21       5102.42
       0.117       5043.95        5228.4       5043.95
       0.118       4989.76       5152.19       4989.76
       0.119       4939.16       5077.53       4939.16
        0.12       4891.43       5004.37       4891.43
       0.121       4845.89       4932.69       4845.89
       0.122       4801.84       4862.45       4801.84
       0.123       4758.64        4793.6       4758.64
       0.124       4715.68       4726.11       4715.68
       0.125       4672.39       4659.95       4672.39
       0.126       4628.31       4595.09       4628.31
       0.127          4583       4531.48          4583
       0.128       4536.15       4469.11       4536.15
       0.129       4487.49       4407.94       4487.49
        0.13       4436.87       4347.94       4436.87
       0.131       4384.21       4289.08       4384.21
       0.132        4329.5       4231.34        4329.5
       0.133       4272.83       4174.68       4272.83
       0.134       4214.34       4119.09       4214.34
       0.135       4154.26       4064.53       4154.26
       0.136       4092.84       4010.98       4092.84
       0.137       4030.39       3958.42       4030.39
       0.138       3967.25       3906.83       3967.25
       0.139       3903.77       3856.18       3903.77
        0.14       3840.33       3806.44       3840.33
       0.141       3777.28       3757.61       3777.28
       0.142          3715       3709.65          3715
       0.143        3653.8       3662.55        3653.8
       0.144       3594.01       3616.28       3594.01
       0.145        3535.9       3570.84        3535.9
       0.146        3479.7        3526.2        3479.7
       0.147       3425.62       3482.33       3425.62
       0.148       3373.81       3439.24       3373.81
       0.149       3324.38       3396.89       3324.38
        0.15       3277.39       3355.27       3277.39
       0.151       3232.86       3314.37       3232.86
       0.152       3190.77       3274.16       3190.77
       0.153       3151.05       3234.64       3151.05
       0.154       3113.62       3195.79       3113.62
       0.155       3078.34       3157.59       3078.34
       0.156       3045.05       3120.04       3045.05
       0.157       3013.58       3083.11       3013.58
       0.158       2983.72       3046.79       2983.72
       0.159       2955.26       3011.07       2955.26
        0.16          2928       2975.94          2928
       0.161       2901.69       2941.39       2901.69
       0.162       2876.13        2907.4       2876.13
       0.163       2851.11       2873.96       2851.11
       0.164       2826.41       2841.06       2826.41
       0.165       2801.85       2808.69       2801.85
       0.166       2777.27       2776.83       2777.27
       0.167       2752.52       2745.49       2752.52
       0.168       2727.47       2714.64       2727.47
       0.169       2702.02       2684.27       2702.02
        0.17       2676.11       2654.39       2676.11
       0.171       2649.69       2624.97       2649.69
       0.172       2622.73       2596.01       2622.73
       0.173       2595.24        2567.5       2595.24
       0.174       2567.25       2539.42       2567.25
       0.175        2538.8       2511.78        2538.8
       0.176       2509.96       2484.56       2509.96
       0.177       2480.82       2457.76       2480.82
       0.178       2451.46       2431.36       2451.46
       0.179       2421.99       2405.36       2421.99
        0.18       2392.52       2379.75       2392.52
       0.181       2363.17       2354.52       2363.17
       0.182       2334.04       2329.67       2334.04
       0.183       2305.24       2305.19       2305.24
       0.184       2276.87       2281.07       2276.87
       0.185       2249.04       2257.31       2249.04
       0.186       2221.82       2233.89       2221.82
       0.187       2195.29       2210.81       2195.29
       0.188       2169.51       2188.07       2169.51
       0.189       2144.52       2165.66       2144.52
        0.19       2120.36       2143.57       2120.36
       0.191       2097.05       2121.79       2097.05
       0.192       2074.59       2100.33       2074.59
       0.193       2052.97       2079.18       2052.97
       0.194       2032.18       2058.32       2032.18
       0.195       2012.18       2037.75       2012.18
       0.196       1992.93       2017.48       1992.93
       0.197       1974.38       1997.49       1974.38
       0.198       1956.47       1977.78       1956.47
       0.199       1939.14       1958.34       1939.14
         0.2       1922.32       1939.17       1922.32
       0.201       1905.94       1920.26       1905.94
       0.202       1889.94       1901.62       1889.94
       0.203       1874.24       1883.22       1874.24
       0.204       1858.78       1865.08       1858.78
       0.205       1843.49       1847.18       1843.49
       0.206       1828.32       1829.53       1828.32
       0.207       1813.21       1812.11       1813.21
       0.208       1798.13       1794.93       1798.13
       0.209       1783.02       1777.97       1783.02
        0.21       1767.86       1761.24       1767.86
       0.211       1752.63       1744.74       1752.63
       0.212       1737.32       1728.44       1737.32
       0.213       1721.91       1712.37       1721.91
       0.214       1706.41        1696.5       1706.41
       0.215       1690.83       1680.84       1690.83
       0.216       1675.18       1665.39       1675.18
       0.217       1659.48       1650.13       1659.48
       0.218       1643.75       1635.07       1643.75
       0.219       1628.03        1620.2       1628.03
        0.22       1612.34       1605.53       1612.34
       0.221       1596.73       1591.04       1596.73
       0.222       1581.21       1576.74       1581.21
       0.223       1565.82       1562.61       1565.82
       0.224       1550.61       1548.67       1550.61
       0.225       1535.59        1534.9       1535.59
       0.226       1520.79        1521.3       1520.79
       0.227       1506.25       1507.87       1506.25
       0.228       1491.98       1494.61       1491.98
       0.229          1478       1481.51          1478
        0.23       1464.32       1468.57       1464.32
       0.231       1450.95       1455.79       1450.95
       0.232       1437.91       1443.17       1437.91
       0.233       1425.18       1430.71       1425.18
       0.234       1412.77       1418.39       1412.77
       0.235       1400.67       1406.23       1400.67
       0.236       1388.87       1394.21       1388.87
       0.237       1377.35       1382.33       1377.35
       0.238        1366.1        1370.6        1366.1
       0.239        1355.1       1359.01        1355.1
        0.24       1344.33       1347.55       1344.33
       0.241       1333.77       1336.23       1333.77
       0.242       1323.39       1325.05       1323.39
       0.243       1313.18          1314       1313.18
       0.244       1303.12       1303.08       1303.12
       0.245       1293.17       1292.28       1293.17
       0.246       1283.33       1281.61       1283.33
       0.247       1273.57       1271.07       1273.57
       0.248       1263.89       1260.64       1263.89
       0.249       1254.25       1250.34       1254.25
        0.25       1244.66       1240.16       1244.66
       0.251       1235.09       1230.09       1235.09
       0.252       1225.56       1220.14       1225.56
       0.253       1216.04        1210.3       1216.04
       0.254       1206.54       1200.57       1206.54
       0.255       1197.06       1190.95       1197.06
       0.256        1187.6       1181.44        1187.6
       0.257       1178.17       1172.04       1178.17
       0.258       1168.76       1162.75       1168.76
       0.259       1159.39       1153.55       1159.39
        0.26       1150.07       1144.46       1150.07
       0.261       1140.79       1135.47       1140.79
       0.262       1131.58       1126.58       1131.58
       0.263       1122.45       1117.79       1122.45
       0.264       1113.39        1109.1       1113.39
       0.265       1104.43        1100.5       1104.43
       0.266       1095.56       1091.99       1095.56
       0.267       1086.81       1083.58       1086.81
       0.268       1078.17       1075.25       1078.17
       0.269       1069.65       1067.02       1069.65
        0.27       1061.26       1058.88       1061.26
       0.271          1053       1050.82          1053
       0.272       1044.87       1042.85       1044.87
       0.273       1036.87       1034.97       1036.87
       0.274       1029.01       1027.17       1029.01
       0.275       1021.28       1019.45       1021.28
       0.276       1013.68       1011.81       1013.68
       0.277        1006.2       1004.26        1006.2
       0.278        998.85       996.779        998.85
       0.279       991.613       989.381       991.613
        0.28       984.486       982.061       984.486
       0.281       977.463       974.816       977.463
       0.282       970.536       967.647       970.536
       0.283       963.699       960.552       963.699
       0.284       956.945        953.53       956.945
       0.285       950.267       946.581       950.267
       0.286       943.658       939.703       943.658
       0.287       937.112       932.895       937.112
       0.288       930.623       926.157       930.623
       0.289       924.186       919.487       924.186
        0.29       917.796       912.885       917.796
       0.291       911.449        906.35       911.449
       0.292       905.143        899.88       905.143
       0.293       898.874       893.476       898.874
       0.294       892.641       887.136       892.641
       0.295       886.442       880.859       886.442
       0.296       880.279       874.644       880.279
       0.297        874.15       868.492        874.15
       0.298       868.056         862.4       868.056
       0.299           862       856.368           862
         0.3       855.982       850.396       855.982
       0.301       850.006       844.483       850.006
       0.302       844.072       838.627       844.072
       0.303       838.185       832.829       838.185
       0.304       832.346       827.087       832.346
       0.305       826.557         821.4       826.557
       0.306       820.823       815.769       820.823
       0.307       815.144       810.192       815.144
       0.308       809.524       804.669       809.524
       0.309       803.963       799.199       803.963
        0.31       798.464       793.781       798.464
       0.311       793.028       788.415       793.028
       0.312       787.655         783.1       787.655
       0.313       782.347       777.836       782.347
       0.314       777.102       772.621       777.102
       0.315       771.922       767.456       771.922
       0.316       766.805       762.339       766.805
       0.317        761.75        757.27        761.75
       0.318       756.757       752.249       756.757
       0.319       751.822       747.274       751.822
        0.32       746.946       742.346       746.946
       0.321       742.124       737.464       742.124
       0.322       737.356       732.626       737.356
       0.323       732.639       727.834       732.639
       0.324       727.971       723.086       727.971
       0.325        723.35       718.381        723.35
       0.326       718.772       713.719       718.772
       0.327       714.236         709.1       714.236
       0.328        709.74       704.523        709.74
       0.329       705.282       699.988       705.282
        0.33        700.86       695.493        700.86
       0.331       696.472        691.04       696.472
       0.332       692.117       686.626       692.117
       0.333       687.793       682.252       687.793
       0.334       683.501       677.918       683.501
       0.335       679.238       673.622       679.238
       0.336       675.005       669.364       675.005
       0.337       670.801       665.145       670.801
       0.338       666.626       660.963       666.626
       0.339       662.481       656.818       662.481
        0.34       658.365       652.709       658.365
       0.341       654.278       648.637       654.278
       0.342       650.221         644.6       650.221
       0.343       646.196       640.599       646.196
       0.344       642.201       636.633       642.201
       0.345       638.238       632.701       638.238
       0.346       634.308       628.803       634.308
       0.347       630.411        624.94       630.411
       0.348       626.548       621.109       626.548
       0.349       622.719       617.312       622.719
        0.35       618.924       613.547       618.924
       0.351       615.165       609.815       615.165
       0.352       611.441       606.115       611.441
       0.353       607.752       602.446       607.752
       0.354       604.098       598.809       604.098
       0.355       600.479       595.202       600.479
       0.356       596.896       591.626       596.896
       0.357       593.347       588.081       593.347
       0.358       589.833       584.565       589.833
       0.359       586.352       581.079       586.352
        0.36       582.904       577.622       582.904
       0.361       579.489       574.194       579.489
